PE UV       SUBTECH     SPECTRUM    ASCII       PEDS        4.00        
   -1
J23.Sample.Raw.asc
18/05/25
16:24:19.00
18/05/25
16:24:19.00
Administrator
longitudinal
325.000000
1
Lambda 850
850L1710193
PerkinElmer UV WinLab 6.4.0.973 / 2.02.06 Lambda 800 UV/VIS, Jan 28 2016 16:58:34

0
0
2
0
0
UV/VIS
1
1
1
RBeamAtt,SBeamAtt,60mm sphere
0
0
0
0
Fix
 
0
0.16
0
0
0
 
 
 
0
 
0
319.2
0
Front
100
 
S:100 R:100
 
0
0
0
 
0
 
 
 
0
 
 
0
0
0
0
0
 
 
 
 
0
0


0
0
#HDR
-1
-1
#GR
nm
%T
1.0
0.0
900.000000
-1.000000
576
8
63.504439
-0.091285
#DATA
900.000000	63.504439
899.000000	61.583282
898.000000	59.740907
897.000000	61.839556
896.000000	63.144523
895.000000	61.562111
894.000000	60.329667
893.000000	59.900690
892.000000	61.718078
891.000000	58.741611
890.000000	59.319798
889.000000	59.029238
888.000000	58.310598
887.000000	58.036767
886.000000	59.724149
885.000000	58.082402
884.000000	58.894092
883.000000	58.745814
882.000000	57.439904
881.000000	55.992148
880.000000	58.594768
879.000000	58.582190
878.000000	56.464807
877.000000	56.538896
876.000000	56.942087
875.000000	56.972065
874.000000	56.726901
873.000000	56.059279
872.000000	55.135677
871.000000	55.065782
870.000000	54.967858
869.000000	54.781883
868.000000	54.590669
867.000000	54.792720
866.000000	53.124751
865.000000	53.077178
864.000000	52.683333
863.000000	52.490895
862.000000	52.022285
861.000000	51.653012
860.000000	51.316118
859.000000	51.285265
858.000000	50.892427
857.000000	50.988123
856.000000	50.222140
855.000000	50.307025
854.000000	50.250135
853.000000	49.962899
852.000000	49.544133
851.000000	48.827090
850.000000	48.824673
849.000000	48.479437
848.000000	48.048325
847.000000	47.930901
846.000000	47.502828
845.000000	47.115137
844.000000	46.931362
843.000000	46.464304
842.000000	46.064971
841.000000	45.796686
840.000000	45.454507
839.000000	45.270618
838.000000	44.963357
837.000000	44.612056
836.000000	44.346287
835.000000	43.977625
834.000000	43.786525
833.000000	43.561458
832.000000	42.974616
831.000000	42.810501
830.000000	42.559959
829.000000	42.229570
828.000000	42.020114
827.000000	41.773019
826.000000	41.440180
825.000000	40.974012
824.000000	40.576245
823.000000	40.448226
822.000000	40.289496
821.000000	39.813582
820.000000	39.602381
819.000000	39.360216
818.000000	38.936215
817.000000	38.681413
816.000000	38.572699
815.000000	38.201434
814.000000	37.943207
813.000000	37.603734
812.000000	37.315897
811.000000	37.110824
810.000000	36.857305
809.000000	36.507865
808.000000	36.169713
807.000000	35.896422
806.000000	35.693913
805.000000	35.473255
804.000000	35.066921
803.000000	34.826279
802.000000	34.564537
801.000000	34.346925
800.000000	34.212119
799.000000	33.929317
798.000000	33.597708
797.000000	33.263907
796.000000	32.999552
795.000000	32.846010
794.000000	32.596301
793.000000	32.245996
792.000000	32.066256
791.000000	31.809376
790.000000	31.454663
789.000000	31.254587
788.000000	31.011787
787.000000	30.722787
786.000000	30.449778
785.000000	30.213585
784.000000	29.994812
783.000000	29.751919
782.000000	29.472798
781.000000	29.193420
780.000000	28.972220
779.000000	28.759913
778.000000	28.510910
777.000000	28.267274
776.000000	28.112713
775.000000	27.852942
774.000000	27.538732
773.000000	27.320276
772.000000	27.133852
771.000000	26.889608
770.000000	26.628453
769.000000	26.384556
768.000000	26.135656
767.000000	25.913416
766.000000	25.686823
765.000000	25.438976
764.000000	25.240868
763.000000	25.063535
762.000000	24.866520
761.000000	24.649949
760.000000	24.428937
759.000000	24.151584
758.000000	23.960806
757.000000	23.798245
756.000000	23.582069
755.000000	23.365607
754.000000	23.142337
753.000000	22.912867
752.000000	22.793037
751.000000	22.652674
750.000000	22.418035
749.000000	22.249586
748.000000	22.097215
747.000000	21.895048
746.000000	21.702923
745.000000	21.564365
744.000000	21.474792
743.000000	21.287168
742.000000	21.135214
741.000000	20.982071
740.000000	20.826170
739.000000	20.663926
738.000000	20.536533
737.000000	20.430797
736.000000	20.285686
735.000000	20.114251
734.000000	19.996488
733.000000	19.882783
732.000000	19.767893
731.000000	19.626176
730.000000	19.541130
729.000000	19.469201
728.000000	19.363399
727.000000	19.252703
726.000000	19.156940
725.000000	19.042804
724.000000	18.936558
723.000000	18.855302
722.000000	18.773738
721.000000	18.674724
720.000000	18.581863
719.000000	18.519406
718.000000	18.434457
717.000000	18.393126
716.000000	18.287367
715.000000	18.172802
714.000000	18.137552
713.000000	18.056370
712.000000	18.004727
711.000000	17.937343
710.000000	17.860246
709.000000	17.832056
708.000000	17.737595
707.000000	17.598026
706.000000	17.582053
705.000000	17.522372
704.000000	17.456240
703.000000	17.355070
702.000000	17.298311
701.000000	17.238391
700.000000	17.165238
699.000000	17.067507
698.000000	16.967530
697.000000	16.883785
696.000000	16.803593
695.000000	16.710006
694.000000	16.606935
693.000000	16.509504
692.000000	16.408633
691.000000	16.299153
690.000000	16.182662
689.000000	16.053436
688.000000	15.940970
687.000000	15.832262
686.000000	15.727164
685.000000	15.538702
684.000000	15.439907
683.000000	15.284523
682.000000	15.142869
681.000000	14.990714
680.000000	14.868001
679.000000	14.703334
678.000000	14.558926
677.000000	14.398702
676.000000	14.182330
675.000000	14.034101
674.000000	13.852559
673.000000	13.692098
672.000000	13.525109
671.000000	13.309177
670.000000	13.108026
669.000000	12.944046
668.000000	12.734875
667.000000	12.536537
666.000000	12.340017
665.000000	12.131019
664.000000	11.935336
663.000000	11.708709
662.000000	11.511948
661.000000	11.274677
660.000000	11.097926
659.000000	10.884186
658.000000	10.668058
657.000000	10.445499
656.000000	10.225490
655.000000	10.025450
654.000000	9.802771
653.000000	9.600452
652.000000	9.372196
651.000000	9.153013
650.000000	8.931678
649.000000	8.730218
648.000000	8.513175
647.000000	8.299859
646.000000	8.104181
645.000000	7.894292
644.000000	7.697222
643.000000	7.487307
642.000000	7.299966
641.000000	7.088438
640.000000	6.887642
639.000000	6.705240
638.000000	6.508118
637.000000	6.346239
636.000000	6.164185
635.000000	5.971404
634.000000	5.790773
633.000000	5.615192
632.000000	5.446078
631.000000	5.288031
630.000000	5.108110
629.000000	4.958496
628.000000	4.802653
627.000000	4.652489
626.000000	4.504252
625.000000	4.352642
624.000000	4.212226
623.000000	4.084420
622.000000	3.948009
621.000000	3.805952
620.000000	3.685282
619.000000	3.555319
618.000000	3.432721
617.000000	3.325273
616.000000	3.211048
615.000000	3.101598
614.000000	2.987829
613.000000	2.884276
612.000000	2.783163
611.000000	2.688133
610.000000	2.591615
609.000000	2.496470
608.000000	2.411120
607.000000	2.323996
606.000000	2.242174
605.000000	2.160076
604.000000	2.079368
603.000000	2.006342
602.000000	1.932190
601.000000	1.866252
600.000000	1.796494
599.000000	1.733097
598.000000	1.671123
597.000000	1.613554
596.000000	1.547048
595.000000	1.491597
594.000000	1.438877
593.000000	1.386522
592.000000	1.336397
591.000000	1.286786
590.000000	1.235896
589.000000	1.195205
588.000000	1.148165
587.000000	1.108314
586.000000	1.066715
585.000000	1.029840
584.000000	0.993631
583.000000	0.960132
582.000000	0.923102
581.000000	0.882382
580.000000	0.852472
579.000000	0.824254
578.000000	0.792666
577.000000	0.768920
576.000000	0.745725
575.000000	0.719782
574.000000	0.692065
573.000000	0.668116
572.000000	0.646541
571.000000	0.624859
570.000000	0.602273
569.000000	0.582632
568.000000	0.569042
567.000000	0.547560
566.000000	0.529938
565.000000	0.510822
564.000000	0.494670
563.000000	0.481396
562.000000	0.462416
561.000000	0.436414
560.000000	0.419324
559.000000	0.406424
558.000000	0.395878
557.000000	0.380642
556.000000	0.367777
555.000000	0.356889
554.000000	0.347091
553.000000	0.332984
552.000000	0.322826
551.000000	0.316035
550.000000	0.307212
549.000000	0.297923
548.000000	0.288697
547.000000	0.279751
546.000000	0.272961
545.000000	0.262505
544.000000	0.256396
543.000000	0.251559
542.000000	0.243403
541.000000	0.234851
540.000000	0.228933
539.000000	0.223312
538.000000	0.215208
537.000000	0.207470
536.000000	0.202613
535.000000	0.200203
534.000000	0.195721
533.000000	0.188653
532.000000	0.183654
531.000000	0.178132
530.000000	0.172399
529.000000	0.168742
528.000000	0.166298
527.000000	0.163552
526.000000	0.160715
525.000000	0.157089
524.000000	0.152276
523.000000	0.145144
522.000000	0.140735
521.000000	0.140029
520.000000	0.139331
519.000000	0.138222
518.000000	0.137277
517.000000	0.136543
516.000000	0.134978
515.000000	0.133080
514.000000	0.135012
513.000000	0.137068
512.000000	0.139354
511.000000	0.142597
510.000000	0.145962
509.000000	0.150867
508.000000	0.154772
507.000000	0.159638
506.000000	0.165911
505.000000	0.171743
504.000000	0.177168
503.000000	0.180904
502.000000	0.184585
501.000000	0.186517
500.000000	0.187262
499.000000	0.188092
498.000000	0.189175
497.000000	0.188147
496.000000	0.185980
495.000000	0.183002
494.000000	0.175097
493.000000	0.168819
492.000000	0.164446
491.000000	0.159097
490.000000	0.153254
489.000000	0.147307
488.000000	0.140524
487.000000	0.133966
486.000000	0.124862
485.000000	0.118041
484.000000	0.111522
483.000000	0.100576
482.000000	0.087165
481.000000	0.073573
480.000000	0.064353
479.000000	0.062427
478.000000	0.066571
477.000000	0.073016
476.000000	0.078855
475.000000	0.081138
474.000000	0.081740
473.000000	0.081559
472.000000	0.082842
471.000000	0.085024
470.000000	0.087597
469.000000	0.091455
468.000000	0.095408
467.000000	0.100622
466.000000	0.107164
465.000000	0.110495
464.000000	0.116833
463.000000	0.126412
462.000000	0.133613
461.000000	0.140435
460.000000	0.144146
459.000000	0.150373
458.000000	0.154690
457.000000	0.155861
456.000000	0.157826
455.000000	0.160145
454.000000	0.162030
453.000000	0.159585
452.000000	0.155933
451.000000	0.155242
450.000000	0.151140
449.000000	0.149048
448.000000	0.146186
447.000000	0.147853
446.000000	0.150076
445.000000	0.143417
444.000000	0.128054
443.000000	0.109865
442.000000	0.105406
441.000000	0.108092
440.000000	0.110326
439.000000	0.111445
438.000000	0.112716
437.000000	0.110398
436.000000	0.112084
435.000000	0.113216
434.000000	0.112451
433.000000	0.108810
432.000000	0.110250
431.000000	0.110850
430.000000	0.110624
429.000000	0.107568
428.000000	0.111316
427.000000	0.111209
426.000000	0.107004
425.000000	0.106781
424.000000	0.107777
423.000000	0.111753
422.000000	0.111957
421.000000	0.106878
420.000000	0.100331
419.000000	0.104350
418.000000	0.102807
417.000000	0.104454
416.000000	0.103257
415.000000	0.105396
414.000000	0.106125
413.000000	0.104243
412.000000	0.101582
411.000000	0.102916
410.000000	0.105742
409.000000	0.105286
408.000000	0.106638
407.000000	0.105261
406.000000	0.102365
405.000000	0.101945
404.000000	0.103721
403.000000	0.102735
402.000000	0.103439
401.000000	0.102150
400.000000	0.104245
399.000000	0.101640
398.000000	0.106684
397.000000	0.108312
396.000000	0.107821
395.000000	0.110088
394.000000	0.103787
393.000000	0.107975
392.000000	0.108623
391.000000	0.104831
390.000000	0.107750
389.000000	0.109746
388.000000	0.107050
387.000000	0.109614
386.000000	0.112941
385.000000	0.117261
384.000000	0.111525
383.000000	0.116200
382.000000	0.115175
381.000000	0.114412
380.000000	0.117024
379.000000	0.095039
378.000000	-0.085421
377.000000	-0.091285
376.000000	-0.052996
375.000000	-0.037513
374.000000	-0.012407
373.000000	0.012522
372.000000	0.029232
371.000000	0.048297
370.000000	0.053649
369.000000	0.054275
368.000000	0.071149
367.000000	0.081752
366.000000	0.095841
365.000000	0.100836
364.000000	0.096819
363.000000	0.097844
362.000000	0.105622
361.000000	0.102963
360.000000	0.103417
359.000000	0.100991
358.000000	0.106270
357.000000	0.107420
356.000000	0.085375
355.000000	0.079063
354.000000	0.066423
353.000000	0.061031
352.000000	0.059612
351.000000	0.048360
350.000000	0.034619
349.000000	0.035092
348.000000	0.028272
347.000000	0.024703
346.000000	0.015262
345.000000	0.013253
344.000000	0.023951
343.000000	0.023861
342.000000	0.021542
341.000000	0.025004
340.000000	0.021864
339.000000	0.021686
338.000000	0.018986
337.000000	0.023218
336.000000	0.026644
335.000000	0.027707
334.000000	0.024624
333.000000	0.023683
332.000000	0.020222
331.000000	0.027079
330.000000	0.025466
329.000000	0.030341
328.000000	0.030614
327.000000	0.029680
326.000000	0.035747
325.000000	0.037888
